2024/06/25	15:29
Amplitude: 2.00 V
Freq  (Hz) 	 Gain (dB)  	 Phase (deg)
  0.931              0.021            179.696
  1.676              0.015            179.317
  2.421              0.018            179.121
  3.912              0.017            178.590
  6.333              0.009            177.615
 10.058              0.000            176.339
 15.832             -0.029            174.255
 25.146             -0.102            170.893
 39.861             -0.263            165.807
 63.144             -0.613            158.190
100.024             -1.457            147.403
158.511             -3.018            134.787
251.271             -5.494            122.002
398.047             -8.707            111.476
630.878            -12.337            103.925
1000.054            -16.176             98.889
1584.925            -20.066             95.634
2511.963            -24.019             93.477
3981.031            -28.042             91.852
6309.524            -32.016             91.424
9999.983            -35.823             89.247
15848.875            -39.844             87.354
25118.887            -43.591             85.627
39810.687            -47.322             85.528
63095.801            -49.981             68.881
100000.016            -56.176             71.882
