2024/06/25	15:39
Amplitude: 2.00 V
Freq  (Hz) 	 Gain (dB)  	 Phase (deg)
  0.931              0.019            179.982
  1.676              0.020            179.922
  2.421              0.015            179.906
  3.912              0.009            179.876
  6.333              0.008            179.717
 10.058              0.009            179.596
 15.832              0.002            179.362
 25.146              0.009            179.137
 39.861              0.004            178.696
 63.144              0.002            178.020
100.024             -0.008            176.433
158.511             -0.037            174.408
251.271             -0.091            171.121
398.047             -0.212            166.420
630.878             -0.570            158.953
1000.054             -1.358            148.621
1584.925             -2.814            136.266
2511.963             -5.175            123.442
3981.031             -8.293            112.422
6309.524            -11.834            104.324
9999.983            -15.611             98.896
15848.875            -19.422             94.822
25118.887            -23.163             91.840
39810.687            -26.709             89.312
63095.801            -29.701             85.978
100000.016            -31.855             83.356
