2024/06/25	15:43
Amplitude: 2.00 V
Freq  (Hz) 	 Gain (dB)  	 Phase (deg)
  0.931             -0.011             -0.306
  1.676             -0.015             -0.652
  2.421             -0.010             -0.965
  3.912             -0.012             -1.527
  6.333             -0.017             -2.527
 10.058             -0.029             -4.071
 15.832             -0.053             -6.170
 25.146             -0.124            -10.019
 39.861             -0.295            -15.590
 63.144             -0.668            -24.015
100.024             -1.520            -35.816
158.511             -3.096            -50.548
251.271             -5.642            -66.253
398.047             -9.006            -81.705
630.878            -12.958            -96.599
1000.054            -17.551            -111.740
1584.925            -22.939            -127.637
2511.963            -29.252            -142.465
3981.031            -36.233            -154.141
6309.524            -44.220            -165.511
9999.983            -54.067            -64.578
15848.875            -59.544            -174.187
25118.887            -66.544            -35.263
39810.687            -65.547            -80.610
63095.801            -54.493            151.622
100000.016            -65.232            -79.096
